X(mm)	Measured heigth (nm)	Residual Heigth (nm)	Slope (micror-rad)	Residual slope (microrad)
0.00	-1441.48	-40.95	-1441.48	0.706455
1.00	-2871.43	-40.10	-1429.95	0.217436
2.00	-4288.52	-38.41	-1417.09	1.06267
3.00	-5693.39	-36.51	-1404.87	1.26823
4.00	-7086.13	-34.52	-1392.74	1.3718
5.00	-8466.54	-32.20	-1380.41	1.69153
6.00	-9834.91	-29.88	-1368.37	1.70559
7.00	-11191.70	-28.01	-1356.8	1.25557
8.00	-12536.10	-25.80	-1344.44	1.60664
9.00	-13868.90	-23.92	-1332.76	1.26712
10.00	-15189.50	-21.89	-1320.57	1.43226
11.00	-16498.00	-19.83	-1308.52	1.464
12.00	-17794.30	-17.60	-1296.33	1.63581
13.00	-19078.80	-15.55	-1284.5	1.45304
14.00	-20351.60	-13.75	-1272.72	1.21052
15.00	-21612.20	-11.91	-1260.65	1.26309
16.00	-22861.00	-10.20	-1248.77	1.12632
17.00	-24097.80	-8.58	-1236.84	1.03805
18.00	-25322.60	-6.93	-1224.78	1.08203
19.00	-26535.50	-5.43	-1212.92	0.924843
20.00	-27736.50	-3.99	-1200.95	0.874574
21.00	-28925.70	-2.90	-1189.27	0.533221
22.00	-30102.90	-1.75	-1177.2	0.589702
23.00	-31268.20	-0.68	-1165.26	0.509433
24.00	-32421.30	0.48	-1153.14	0.607831
25.00	-33562.20	1.85	-1140.91	0.824062
26.00	-34691.00	3.33	-1128.78	0.933376
27.00	-35807.80	4.76	-1116.8	0.89119
28.00	-36912.50	6.31	-1104.66	1.01892
29.00	-38004.80	8.22	-1092.29	1.3729
30.00	-39085.10	10.00	-1080.39	1.25055
31.00	-40153.90	11.38	-1068.77	0.848864
32.00	-41210.20	13.24	-1056.26	1.34501
33.00	-42254.70	14.79	-1044.56	1.02866
34.00	-43287.20	16.41	-1032.46	1.10639
35.00	-44307.90	17.81	-1020.67	0.881871
36.00	-45316.90	18.82	-1009.03	0.499518
37.00	-46314.50	19.24	-997.591	-0.0784176
38.00	-47299.80	19.93	-985.304	0.190313
39.00	-48273.40	20.32	-973.591	-0.115122
40.00	-49235.90	19.76	-962.505	-1.04764
41.00	-50186.80	18.80	-950.894	-1.45508
42.00	-51126.00	17.48	-939.224	-1.80335
43.00	-52053.50	15.85	-927.521	-2.1182
44.00	-52968.70	14.55	-915.16	-1.77613
45.00	-53871.30	13.74	-902.655	-1.28857
46.00	-54761.50	13.37	-890.188	-0.839756
47.00	-55639.70	13.03	-878.141	-0.811609
48.00	-56505.30	13.13	-865.673	-0.362211
49.00	-57358.70	13.51	-853.371	-0.0784801
50.00	-58200.00	13.96	-841.283	-0.00866582
51.00	-59029.20	14.43	-829.248	0.00881509
52.00	-59846.00	15.32	-816.791	0.446879
53.00	-60650.80	16.24	-804.752	0.46811
54.00	-61443.90	16.78	-793.103	0.0981745
55.00	-62225.30	16.96	-781.438	-0.255095
56.00	-62994.70	17.23	-769.331	-0.165864
57.00	-63752.10	17.42	-757.397	-0.250633
58.00	-64497.60	17.38	-745.592	-0.462985
59.00	-65231.30	17.32	-733.603	-0.492504
60.00	-65952.70	17.34	-721.49	-0.397773
61.00	-66661.90	17.65	-709.177	-0.103459
62.00	-67359.10	17.95	-697.176	-0.120895
63.00	-68044.20	18.29	-685.111	-0.0733307
64.00	-68717.50	18.45	-673.257	-0.237683
65.00	-69378.60	18.76	-661.104	-0.103119
66.00	-70027.80	18.95	-649.188	-0.205805
67.00	-70665.20	18.85	-637.457	-0.49299
68.00	-71290.80	18.58	-625.615	-0.668926
69.00	-71904.10	18.63	-613.26	-0.332945
70.00	-72505.60	18.39	-601.536	-0.626881
71.00	-73094.60	18.67	-589	-0.109317
72.00	-73671.60	18.96	-576.958	-0.0850859
73.00	-74236.20	19.53	-564.659	0.195728
74.00	-74788.90	20.07	-552.671	0.165293
75.00	-75329.50	20.70	-540.548	0.270024
76.00	-75858.20	21.10	-528.77	0.0298378
77.00	-76375.20	21.31	-516.928	-0.146681
78.00	-76880.40	21.23	-505.205	-0.441534
79.00	-77373.60	21.13	-493.193	-0.44772
80.00	-77854.50	21.27	-480.934	-0.207322
81.00	-78323.50	21.32	-469.004	-0.295758
82.00	-78780.30	21.57	-456.786	-0.0961101
83.00	-79225.40	21.49	-445.088	-0.416129
84.00	-79658.20	21.66	-432.823	-0.169982
85.00	-80079.20	21.60	-421.028	-0.392667
86.00	-80488.60	21.19	-409.35	-0.733353
87.00	-80886.60	20.07	-398.042	-1.44329
88.00	-81273.00	18.53	-386.439	-1.85839
89.00	-81647.50	16.92	-374.491	-1.92924
90.00	-82009.70	15.59	-362.19	-1.64593
91.00	-82359.40	14.73	-349.697	-1.17145
92.00	-82697.10	13.86	-337.679	-1.17197
93.00	-83023.80	11.93	-326.725	-2.23549
94.00	-83338.10	10.44	-314.263	-1.79192
95.00	-83640.50	8.78	-302.406	-1.95344
96.00	-83930.80	7.19	-290.317	-1.88279
97.00	-84209.10	5.59	-278.304	-1.88806
98.00	-84475.30	4.10	-266.167	-1.7695
99.00	-84729.40	2.63	-254.136	-1.75652
100.00	-84971.40	1.27	-241.992	-1.63045
101.00	-85201.10	0.24	-229.656	-1.31264
102.00	-85419.00	-1.12	-217.95	-1.62533
103.00	-85625.10	-2.67	-206.123	-1.81684
104.00	-85819.70	-4.65	-194.529	-2.24053
105.00	-86002.70	-7.11	-182.989	-2.71905
106.00	-86173.40	-9.31	-170.706	-2.45449
107.00	-86331.50	-10.98	-158.157	-1.92367
108.00	-86477.20	-12.19	-145.677	-1.46227
109.00	-86611.00	-13.50	-133.752	-1.55496
110.00	-86733.20	-15.35	-122.268	-2.08998
111.00	-86844.20	-17.90	-110.949	-2.7885
112.00	-86943.60	-20.93	-99.4104	-3.26843
113.00	-87031.00	-24.03	-87.453	-3.32929
114.00	-87105.90	-26.53	-74.8334	-2.72797
115.00	-87168.20	-28.57	-62.3429	-2.25574
116.00	-87218.20	-30.22	-49.9445	-1.87559
117.00	-87255.90	-31.67	-37.7089	-1.65828
118.00	-87281.20	-32.77	-25.3505	-1.31813
119.00	-87294.50	-33.81	-13.2575	-1.2434
120.00	-87295.20	-34.38	-0.77325	-0.777419
121.00	-87283.50	-34.47	11.7262	-0.296271
122.00	-87259.20	-34.03	24.2861	0.245376
123.00	-87222.40	-33.05	36.8399	0.78094
124.00	-87173.30	-31.84	49.1038	1.02659
125.00	-87112.10	-30.58	61.1656	1.07007
126.00	-87038.90	-29.30	73.2071	1.0933
127.00	-86953.50	-27.85	85.4037	1.27161
128.00	-86856.00	-26.34	97.4893	1.33901
129.00	-86746.30	-24.60	109.729	1.56024
130.00	-86624.50	-22.86	121.762	1.57472
131.00	-86490.90	-21.23	133.667	1.46187
132.00	-86345.40	-19.86	145.429	1.20544
133.00	-86188.50	-18.98	156.971	0.728999
134.00	-86019.10	-17.74	169.342	1.08165
135.00	-85837.80	-16.56	181.307	1.02929
136.00	-85644.60	-15.50	193.213	0.916692
137.00	-85439.30	-14.40	205.268	0.95359
138.00	-85221.90	-13.17	217.419	1.08624
139.00	-84993.10	-12.60	228.786	0.434552
140.00	-84751.60	-11.29	241.55	1.1807
141.00	-84498.60	-10.60	252.95	0.562263
142.00	-84233.60	-9.85	265.025	0.618661
143.00	-83956.60	-9.15	277.003	0.578225
144.00	-83667.30	-8.20	289.274	0.831039
145.00	-83365.90	-7.12	301.425	0.964104
146.00	-83052.30	-5.85	313.64	1.1605
147.00	-82726.60	-4.55	325.693	1.19532
148.00	-82389.10	-3.48	337.478	0.96213
149.00	-82039.80	-2.63	349.284	0.749694
150.00	-81678.40	-1.63	361.459	0.906675
151.00	-81305.00	-0.77	373.332	0.761822
152.00	-80919.70	0.00	385.274	0.685637
153.00	-80522.50	0.72	397.239	0.631784
154.00	-80113.50	1.17	408.989	0.363432
155.00	-79692.70	1.45	420.85	0.206496
156.00	-79259.90	1.61	432.749	0.086727
157.00	-78815.30	1.66	444.659	-0.0207088
158.00	-78358.50	1.75	456.712	0.0136055
159.00	-77890.20	1.45	468.354	-0.362497
160.00	-77410.10	0.84	480.066	-0.668683
161.00	-76917.90	0.37	492.229	-0.524368
162.00	-76413.50	0.04	504.381	-0.390304
163.00	-75897.10	-0.30	516.409	-0.381073
164.00	-75368.60	-0.60	528.462	-0.346426
165.00	-74828.30	-1.08	540.3	-0.526528
166.00	-74276.00	-1.52	552.363	-0.481881
167.00	-73711.80	-2.14	564.206	-0.656566
168.00	-73135.50	-2.67	576.323	-0.558085
169.00	-72547.00	-3.05	588.489	-0.410021
170.00	-71946.50	-3.47	600.476	-0.44204
171.00	-71333.50	-3.40	612.984	0.0476906
172.00	-70708.50	-3.36	624.972	0.0174215
173.00	-70071.60	-3.37	636.955	-0.0174309
174.00	-69422.70	-3.44	648.906	-0.0845333
175.00	-68762.10	-3.84	660.605	-0.403636
176.00	-68089.30	-4.12	672.741	-0.286155
177.00	-67404.50	-4.35	684.823	-0.223007
178.00	-66707.60	-4.51	696.908	-0.15536
179.00	-65998.50	-4.51	709.088	0.00620454
180.00	-65276.60	-3.74	721.884	0.783519
181.00	-64542.60	-2.85	734.02	0.901083
182.00	-63797.00	-2.40	745.607	0.470481
183.00	-63039.70	-2.28	757.3	0.144461
184.00	-62270.60	-2.35	769.121	-0.0527243
185.00	-61489.40	-2.38	781.2	0.00867331
186.00	-60696.00	-2.29	793.33	0.120071
187.00	-59890.70	-2.21	805.343	0.114468
188.00	-59073.40	-2.17	817.332	0.0854494
189.00	-58244.00	-2.14	829.333	0.0685969
190.00	-57402.50	-1.96	841.516	0.232578
191.00	-56549.10	-1.93	853.381	0.0797254
192.00	-55683.70	-1.81	865.489	0.169206
193.00	-54806.00	-1.59	877.614	0.276021
194.00	-53915.90	-0.83	890.183	0.827001
195.00	-53013.30	0.25	902.517	1.14265
196.00	-52098.50	1.63	914.849	1.45621
197.00	-51171.60	3.00	926.852	1.44161
198.00	-50232.50	4.64	939.146	1.71643
199.00	-49281.80	5.83	950.715	1.26799
200.00	-48319.70	6.31	962.032	0.566387
201.00	-47346.00	6.50	973.754	0.270451
202.00	-46360.20	6.73	985.823	0.320515
203.00	-45362.30	6.93	997.817	0.296913
204.00	-44351.90	7.78	1010.49	0.949977
205.00	-43329.50	8.45	1022.32	0.765708
206.00	-42295.80	8.48	1033.71	0.137939
207.00	-41250.60	7.99	1045.22	-0.37733
208.00	-40193.60	7.32	1057.05	-0.557682
209.00	-39124.10	7.04	1069.46	-0.167202
210.00	-38042.60	6.79	1081.52	-0.131554
211.00	-36949.00	6.57	1093.57	-0.0928231
212.00	-35843.40	6.40	1105.64	-0.0415089
213.00	-34725.40	6.48	1117.91	0.207889
214.00	-33595.70	6.35	1129.72	0.000702952
215.00	-32453.80	6.35	1141.88	0.142767
216.00	-31300.20	6.05	1153.6	-0.155169
217.00	-30134.40	5.92	1165.79	0.015479
218.00	-28956.50	5.95	1177.97	0.175877
219.00	-27766.40	6.07	1190.09	0.273524
220.00	-26564.30	6.22	1202.14	0.306838
221.00	-25350.00	6.49	1214.28	0.428986
222.00	-24124.10	6.35	1225.89	0.0174669
223.00	-22886.50	5.84	1237.55	-0.340136
224.00	-21637.50	4.82	1249.05	-0.850155
225.00	-20376.50	3.69	1260.97	-0.95534
226.00	-19103.40	2.68	1273.1	-0.839359
227.00	-17817.70	2.30	1285.76	-0.197879
228.00	-16519.70	2.12	1297.98	0.00385232
229.00	-15209.70	1.95	1310.02	0.0254999
230.00	-13887.60	1.82	1322.07	0.0574808
231.00	-12553.70	1.52	1333.93	-0.103622
232.00	-11207.50	1.41	1346.14	0.0921926
233.00	-9849.00	1.66	1358.52	0.446507
234.00	-8478.27	2.09	1370.73	0.645488
235.00	-7095.43	2.62	1382.84	0.734469
236.00	-5700.27	3.44	1395.16	1.0392
237.00	-4293.17	4.18	1407.1	0.95568
238.00	-2873.98	4.99	1419.18	1.02499
239.00	-1442.71	5.86	1431.27	1.09278
240.00	1.00	7.15	1443.72	1.52046
